Photospheric1 results, Ver = 3.30 

Compilation Date = Jan 10 2014 
Compilation Time = 11:49:39 

physical parameters: 
====================

L_GRB = 1.000e+52 
xi_e = 1.000e-01   xi_B = 1.000e-02 
power_law = 2.00e+00 Gamma_i = 3.000e+02 delta_t = 1.599e-04

 xi_d = 5.000e-01   xi_pl = 0.000e+00  E_m_acc = 0.000000e+00 
T0 = 0.000e+00 [erg], L_0 = 0.000e+00 [erg/s, obs.] 

collision radius = 4.318e+11 volume = 3.373e+33 
N_shell = 3.542e+48 
B = 4.456e+05 

Electrons minimum gb = 1.000e-03 , maximum gb(gamma*beta) = 1.220e+06 
# of electrons cells = 100 
in gb[j] = gb0*x^j , x= 1.2353e+00 

Photons minimum energy = 1.000e-14 , maximum energy = 1.000e+00 
# of photon cells = 100 
in E[j] = E0*x^j , x= 1.3849e+00 

do_pairs =   1 do_annihilate =   1 do_compton =   1  

t_dyn = 4.798e-02 time_step = 4.798e-05 dt_min = 1.599e-07

Initial thermal component: 

Energy   dN_thermal 
-------------------------------
1.000e-14  2.510e+45 
1.385e-14  4.815e+45 
1.918e-14  9.234e+45 
2.656e-14  1.771e+46 
3.678e-14  3.396e+46 
5.094e-14  6.514e+46 
7.055e-14  1.249e+47 
9.770e-14  2.396e+47 
1.353e-13  4.594e+47 
1.874e-13  8.810e+47 
2.595e-13  1.689e+48 
3.594e-13  3.239e+48 
4.977e-13  6.209e+48 
6.893e-13  1.190e+49 
9.545e-13  2.281e+49 
1.322e-12  4.370e+49 
1.831e-12  8.368e+49 
2.535e-12  1.602e+50 
3.511e-12  3.063e+50 
4.863e-12  5.850e+50 
6.734e-12  1.116e+51 
9.326e-12  2.123e+51 
1.292e-11  4.028e+51 
1.789e-11  7.611e+51 
2.477e-11  1.429e+52 
3.430e-11  2.662e+52 
4.751e-11  4.901e+52 
6.579e-11  8.873e+52 
9.112e-11  1.569e+53 
1.262e-10  2.680e+53 
1.748e-10  4.355e+53 
2.420e-10  6.571e+53 
3.352e-10  8.873e+53 
4.642e-10  1.014e+54 
6.428e-10  9.049e+53 
8.902e-10  5.623e+53 
1.233e-09  2.099e+53 
1.707e-09  3.904e+52 
2.364e-09  2.844e+51 
3.275e-09  5.866e+49 
4.535e-09  2.164e+47 
6.280e-09  7.413e+43 
8.697e-09  9.398e+38 
1.205e-08  1.231e+32 
1.668e-08  2.853e+22 
2.310e-08  1.016e+09 
3.199e-08  1.887e-10 
4.431e-08  1.688e-36 
6.136e-08  1.106e-72 
8.498e-08  6.637e-123 
1.177e-07  1.427e-192 
1.630e-07  0.000e+00 
2.257e-07  0.000e+00 
3.126e-07  0.000e+00 
4.329e-07  0.000e+00 
5.995e-07  0.000e+00 
8.302e-07  0.000e+00 
1.150e-06  0.000e+00 
1.592e-06  0.000e+00 
2.205e-06  0.000e+00 
3.054e-06  0.000e+00 
4.229e-06  0.000e+00 
5.857e-06  0.000e+00 
8.111e-06  0.000e+00 
1.123e-05  0.000e+00 
1.556e-05  0.000e+00 
2.154e-05  0.000e+00 
2.984e-05  0.000e+00 
4.132e-05  0.000e+00 
5.722e-05  0.000e+00 
7.925e-05  0.000e+00 
1.097e-04  0.000e+00 
1.520e-04  0.000e+00 
2.105e-04  0.000e+00 
2.915e-04  0.000e+00 
4.037e-04  0.000e+00 
5.591e-04  0.000e+00 
7.743e-04  0.000e+00 
1.072e-03  0.000e+00 
1.485e-03  0.000e+00 
2.057e-03  0.000e+00 
2.848e-03  0.000e+00 
3.944e-03  0.000e+00 
5.462e-03  0.000e+00 
7.565e-03  0.000e+00 
1.048e-02  0.000e+00 
1.451e-02  0.000e+00 
2.009e-02  0.000e+00 
2.783e-02  0.000e+00 
3.854e-02  0.000e+00 
5.337e-02  0.000e+00 
7.391e-02  0.000e+00 
1.024e-01  0.000e+00 
1.417e-01  0.000e+00 
1.963e-01  0.000e+00 
2.719e-01  0.000e+00 
3.765e-01  0.000e+00 
5.214e-01  0.000e+00 
7.221e-01  0.000e+00 

Final spectrum
photons: E_g     N_g     dNg_dt 
-------------------------------------
1.385e-14 5.088e+45 8.818e+57 
1.918e-14 1.408e+46 1.162e+57 
2.656e-14 1.026e+47 5.582e+56 
3.678e-14 6.618e+47 3.842e+56 
5.094e-14 2.670e+48 2.792e+56 
7.055e-14 5.719e+48 2.042e+56 
9.770e-14 1.316e+49 1.576e+56 
1.353e-13 3.021e+49 1.173e+56 
1.874e-13 6.962e+49 8.613e+55 
2.595e-13 1.600e+50 6.383e+55 
3.594e-13 3.681e+50 4.759e+55 
4.977e-13 8.501e+50 3.565e+55 
6.893e-13 1.971e+51 2.713e+55 
9.545e-13 4.580e+51 2.040e+55 
1.322e-12 1.062e+52 1.588e+55 
1.831e-12 2.405e+52 1.269e+55 
2.535e-12 5.076e+52 9.941e+54 
3.511e-12 9.206e+52 7.484e+54 
4.863e-12 1.342e+53 5.501e+54 
6.734e-12 1.602e+53 4.255e+54 
9.326e-12 1.647e+53 3.591e+54 
1.292e-11 1.525e+53 3.107e+54 
1.789e-11 1.328e+53 2.689e+54 
2.477e-11 1.103e+53 2.258e+54 
3.430e-11 8.927e+52 1.844e+54 
4.751e-11 7.095e+52 1.465e+54 
6.579e-11 5.656e+52 1.135e+54 
9.112e-11 4.621e+52 8.537e+53 
1.262e-10 4.026e+52 6.144e+53 
1.748e-10 3.867e+52 3.990e+53 
2.420e-10 4.097e+52 2.015e+53 
3.352e-10 4.499e+52 2.713e+52 
4.642e-10 4.684e+52 -8.022e+52 
6.428e-10 4.262e+52 -4.832e+52 
8.902e-10 3.195e+52 1.135e+53 
1.233e-09 1.938e+52 2.440e+53 
1.707e-09 1.010e+52 2.296e+53 
2.364e-09 5.086e+51 1.469e+53 
3.275e-09 2.718e+51 8.257e+52 
4.535e-09 1.615e+51 4.741e+52 
6.280e-09 1.065e+51 2.931e+52 
8.697e-09 7.576e+50 1.967e+52 
1.205e-08 5.602e+50 1.402e+52 
1.668e-08 4.237e+50 1.040e+52 
2.310e-08 3.239e+50 7.853e+51 
3.199e-08 2.488e+50 5.970e+51 
4.431e-08 1.909e+50 4.537e+51 
6.136e-08 1.463e+50 3.408e+51 
8.498e-08 1.101e+50 2.466e+51 
1.177e-07 8.073e+49 1.681e+51 
1.630e-07 5.636e+49 1.053e+51 
2.257e-07 3.820e+49 6.518e+50 
3.126e-07 2.571e+49 4.194e+50 
4.329e-07 1.722e+49 2.740e+50 
5.995e-07 1.378e+49 3.094e+50 
8.302e-07 1.366e+49 1.917e+50 
1.150e-06 4.170e+48 4.048e+49 
1.592e-06 2.648e+48 2.186e+49 
2.205e-06 1.664e+48 1.152e+49 
3.054e-06 9.947e+47 5.823e+48 
4.229e-06 5.589e+47 2.817e+48 
5.857e-06 2.948e+47 1.264e+48 
8.111e-06 1.458e+47 5.096e+47 
1.123e-05 6.907e+46 1.797e+47 
1.556e-05 3.049e+46 5.458e+46 
2.154e-05 1.311e+46 1.472e+46 
2.984e-05 5.119e+45 3.639e+45 
4.132e-05 1.860e+45 9.673e+44 
5.722e-05 5.702e+44 2.778e+44 
7.925e-05 1.531e+44 8.664e+43 
1.097e-04 2.927e+43 1.685e+43 
1.520e-04 4.262e+42 1.174e+42 
2.105e-04 3.348e+41 -1.174e+41 
2.915e-04 1.299e+40 -1.689e+40 
4.037e-04 1.425e+38 -2.846e+38 
5.591e-04 2.763e+35 -5.898e+35 
7.743e-04 1.309e+32 2.030e+32 
1.072e-03 2.851e+26 1.453e+24 
1.485e-03 1.236e+21 1.789e+22 
2.057e-03 6.853e+12 1.105e+15 
2.848e-03 3.405e+08 1.507e+12 
3.944e-03 7.387e-01 -7.109e-02 
5.462e-03 1.348e-19 3.519e-19 
7.565e-03 0.000e+00 2.556e-42 
1.048e-02 0.000e+00 2.570e-73 
1.451e-02 0.000e+00 0.000e+00 
2.009e-02 0.000e+00 0.000e+00 
2.783e-02 0.000e+00 0.000e+00 
3.854e-02 0.000e+00 0.000e+00 
5.337e-02 0.000e+00 0.000e+00 
7.391e-02 0.000e+00 0.000e+00 
1.024e-01 0.000e+00 0.000e+00 
1.417e-01 0.000e+00 0.000e+00 
1.963e-01 0.000e+00 0.000e+00 
2.719e-01 0.000e+00 0.000e+00 
3.765e-01 0.000e+00 0.000e+00 
5.214e-01 0.000e+00 0.000e+00 
7.221e-01 0.000e+00 0.000e+00 
1.000e+00 0.000e+00 0.000e+00 
